BEGIN IONS
TITLE=File220 Spectrum6146 scans: 8341
PEPMASS=1216.0276 0.0
CHARGE=3+

339.2480 5.0818
343.4170 11.7981
345.1680 11.3884
349.7500 7.2378
351.2870 8.3916
364.7480 6.2388
377.2620 9.0977
381.1750 3.6857
384.4280 26.8684
389.2560 117.3760
390.2210 26.5667
395.0040 9.3984
396.2710 8.2474
397.0150 3.6395
399.1960 6.4498
400.2030 2.4749
409.2770 9.6434
410.7210 25.7063
412.3150 44.1066
419.4190 3.8616
424.3100 46.4757
426.3510 27.9409
428.3150 9.5704
429.4320 11.4045
430.2240 8.6056
436.4350 25.3902
437.4390 7.7408
438.1420 14.6812
439.3410 22.4674
440.2240 10.5935
441.2270 26.7537
446.9950 10.6777
449.2960 19.4438
452.0030 8.9085
453.3970 13.6614
454.5420 6.6928
456.2660 13.5092
457.1840 18.2673
457.8890 22.1494
460.2730 6.0822
461.4990 14.1942
462.2810 5.4707
464.4520 16.1452
465.3950 5.8036
468.3610 15.2559
469.4980 13.1999
472.1940 8.7823
474.2960 8.4597
475.2600 2.5513
477.0250 22.7670
478.5160 7.6593
479.4940 18.3680
480.3330 6.9898
482.1890 39.1483
484.1830 18.3258
486.6610 7.2168
491.5060 7.9849
493.3690 14.4716
494.3360 22.3995
495.3660 7.6754
498.2050 14.8519
499.3180 45.4354
500.3310 12.1806
502.2350 9.8402
504.4400 7.6264
505.2500 9.5969
506.3840 10.7780
508.3620 11.0139
510.2800 29.6547
511.2650 15.8001
512.3560 15.7563
513.1020 14.7068
514.2870 11.6952
515.2510 6.0159
516.2440 22.1534
517.2600 231.2400
517.9940 81.4009
518.8770 6.0667
520.3310 21.9403
524.3110 20.4807
527.5680 3.5700
528.4220 11.6456
529.2690 13.1864
531.4560 16.2331
537.5020 6.4689
538.2590 7.5264
540.2510 33.7981
541.2930 5.9916
544.4860 10.5816
547.2370 9.2916
550.2960 5.0672
552.0160 12.6941
554.3680 58.6785
555.3130 19.2500
561.5110 14.4999
564.8680 3.0244
566.2480 57.4604
568.3890 18.5502
569.4390 14.0717
570.3830 21.3531
572.4780 17.8155
573.2780 5.9335
574.5150 7.4225
578.3990 25.6546
579.3350 5.7699
580.1780 4.9153
581.7700 3.4277
583.4730 13.7641
584.3470 12.7065
585.6000 29.7199
586.2670 8.7727
587.2830 26.5721
589.4160 46.7220
590.4150 17.4574
593.4970 28.6382
595.1250 7.3815
596.3170 43.3224
597.3820 32.2118
598.3600 27.7852
599.3430 40.0829
600.2170 2.0503
601.4330 17.6828
604.3000 49.2557
606.3680 5.7106
607.3430 12.1500
608.3790 32.7427
609.5160 13.0914
611.4340 18.8240
612.3510 6.9786
613.4280 4.8554
614.3510 5.1075
615.6970 11.9323
616.5500 179.8500
617.3720 59.3648
622.4390 5.5051
623.5340 9.3865
624.4450 15.7265
625.4720 39.1887
626.5110 29.8407
627.3850 39.8160
628.6140 3.2084
629.5260 14.4902
630.3330 12.5959
632.5030 26.5668
633.6410 17.4368
637.5580 13.8755
638.4400 14.5158
639.3710 38.4310
641.0880 6.8138
642.2400 23.8417
644.3260 20.3305
645.4520 15.5960
646.6010 3.4554
647.4620 13.0909
648.2650 23.5780
650.6290 8.2320
651.5420 47.7960
653.5750 19.2538
654.4270 36.9856
655.5550 9.0899
656.1730 10.2466
658.2930 12.0803
660.4550 5.4835
661.3720 11.7925
662.4220 31.3148
664.5330 20.3929
666.5040 17.4598
667.4360 24.7291
668.7710 61.5869
669.7840 21.1563
671.4320 16.7723
673.2830 9.2509
675.4840 17.8626
676.4990 42.9088
677.4480 8.9121
679.5590 20.9149
680.6660 8.2479
682.5260 14.5487
684.0310 71.9783
685.3950 6.6904
686.4520 20.3828
687.4470 25.3553
692.6290 22.2647
694.4230 17.7917
695.5420 24.1434
696.6030 25.2668
697.4270 7.1042
698.6520 12.1895
701.4540 11.9706
702.5340 9.6152
704.6770 6.0920
705.3560 12.5195
706.4650 4.4692
707.2880 5.6991
708.3820 9.4550
711.0210 22.1452
711.8150 5.6834
712.4890 3.6057
713.3600 6.6324
715.4660 4.7241
716.4520 15.5841
717.4460 3.9308
718.5090 31.5682
720.5630 10.7956
721.2120 22.3123
726.5670 17.7906
727.3910 10.0365
728.6430 17.5745
729.5670 58.7274
730.5270 27.3670
731.2030 25.3921
732.8040 12.9040
734.2700 17.0009
735.4530 7.6732
736.5370 26.5795
737.5040 38.7508
738.4530 12.2591
739.4630 26.9035
741.2960 11.1608
742.5350 23.8446
744.3880 15.2458
745.5810 9.9936
746.6400 25.4192
747.6500 30.8673
748.6810 5.8476
749.5520 25.6217
751.4390 23.9676
752.2730 36.0339
753.4070 54.3483
754.3000 91.8901
755.4980 38.1360
756.4610 25.4803
757.2360 13.0395
758.4540 6.4523
760.2960 43.5392
761.1950 16.4621
763.3640 80.1721
764.7650 13.3900
765.4880 18.9033
766.4540 35.9603
767.8650 19.3863
769.6290 63.4070
771.7810 7.8477
772.7630 42.1123
773.7760 3.2876
774.5240 8.4749
776.0800 4.3400
778.7990 15.2365
779.6390 9.5737
780.6090 22.0958
783.4250 43.7604
784.4900 18.3018
785.1760 8.9637
785.9600 12.5236
786.9260 41.2967
788.3550 4.5336
790.0140 22.7813
790.7450 21.0244
791.7630 11.6114
792.8480 7.0878
796.4860 41.9948
797.1030 9.8042
798.4440 4.7622
799.6140 7.4795
802.5950 25.9833
804.4120 27.9192
806.6770 89.7252
807.8140 17.5422
809.5590 37.5178
810.4770 14.3492
811.5860 35.1477
814.5250 63.4007
816.4870 208.2420
817.6880 77.4313
818.4810 49.2388
820.7660 11.7266
821.9060 18.9263
822.6600 42.8074
826.3580 24.8043
827.8140 16.7329
828.4750 7.9319
829.1950 22.4941
830.5440 66.0798
831.6960 16.5490
832.5500 6.7268
834.8080 20.1562
835.5720 33.5705
839.1450 28.4786
840.1490 7.5272
841.9840 13.6272
843.6090 9.8253
844.6250 27.5503
846.5310 28.1371
848.1930 21.0977
849.4750 20.3702
850.6090 6.5630
851.7360 31.4312
852.6520 24.1493
853.3880 11.1285
854.5600 10.3489
855.4250 38.8557
856.4040 12.9042
858.6040 25.2912
859.5910 32.3735
860.5920 16.3924
861.4610 27.0517
862.5900 26.1557
863.5870 14.7771
864.3150 13.1346
865.4780 19.2112
866.9850 11.8808
868.6840 47.0796
869.4800 15.0426
870.3540 38.3480
871.2170 29.2232
872.6260 18.6964
873.5260 9.5210
874.7850 7.1456
875.5730 11.4247
878.7440 9.8108
879.4640 73.7330
880.6420 56.3190
881.5910 16.8472
882.5160 29.4558
883.7090 37.3424
884.7760 14.8305
885.6330 2.9205
887.6060 10.4448
889.2440 11.0402
892.5560 13.0962
893.4570 11.8916
894.6270 22.3335
896.6360 69.7334
897.5220 125.8440
898.2910 32.4373
899.4580 27.3599
900.4830 8.6243
901.5150 49.2887
902.6530 20.0211
903.5430 16.3411
904.6060 22.0141
905.5630 14.0435
906.6970 11.9044
907.6520 31.6483
908.7690 23.1227
909.6540 33.0270
910.6120 11.3591
911.4900 9.3386
912.7050 21.8981
913.6590 21.4297
914.5460 6.5253
915.6740 24.1907
916.8840 42.2811
920.3420 11.2356
921.6920 51.8871
922.8750 50.3638
923.5620 64.2969
924.7160 42.4676
925.8940 49.4061
926.7810 32.2655
927.4990 15.6255
928.5560 71.6663
929.6610 29.1774
930.3700 9.7113
931.6470 12.7578
933.7550 71.1058
934.7100 38.5382
935.6030 2.8533
936.7710 22.5195
939.7000 68.2437
940.3540 9.6040
943.3860 13.3617
944.6820 214.2460
945.6800 162.4640
946.5860 12.6195
947.5820 22.3384
949.0710 19.3652
950.9660 25.0567
951.6980 15.2804
952.4790 14.1536
953.2630 31.3439
954.4870 15.7739
955.2840 15.9626
958.6150 25.3119
959.7380 26.1517
961.5550 31.0589
962.8560 6.5740
963.7670 59.8075
964.7160 70.1189
965.7750 53.8537
966.7850 37.2130
968.2900 5.5221
969.1380 22.0441
971.1090 25.8315
972.6920 58.1358
973.7420 18.0409
974.6250 36.3801
975.5990 45.2815
976.6160 56.7010
977.7180 10.9503
978.8470 15.3197
979.6900 14.8850
980.5280 128.8900
981.6460 55.0050
982.5700 33.7607
983.6160 10.7772
986.4030 19.2185
988.2580 39.9161
989.0060 14.7464
989.8920 16.0741
991.6250 17.7697
992.7600 131.5730
993.6250 261.0560
994.6470 91.1098
995.8860 72.9288
996.7890 41.8201
998.8770 46.4620
999.8260 87.2838
1000.6640 40.0012
1002.6930 5.8286
1003.5600 12.2391
1005.7010 44.0569
1006.6480 18.0061
1008.4990 271.6750
1009.1560 70.5959
1010.6100 1663.5400
1011.6060 759.2080
1012.6710 228.1820
1013.5410 5.6370
1014.6580 35.2498
1015.9770 40.2476
1016.7420 53.8624
1018.1020 71.4516
1018.7750 49.7085
1020.4670 6.0023
1022.0840 30.5460
1022.7400 10.4697
1024.6110 140.0330
1025.7210 68.3365
1026.6660 51.8209
1027.6540 43.5725
1029.7710 61.8857
1030.5870 48.0226
1031.9480 40.8432
1032.9360 6.3235
1033.6300 8.4563
1034.7670 10.0625
1035.9070 39.2518
1036.7690 12.5646
1037.9220 62.1760
1039.0710 37.6203
1039.7420 50.2557
1040.8060 28.3548
1042.3170 14.2777
1043.7690 270.1670
1044.6880 93.7110
1045.4410 64.7072
1046.5350 41.5509
1047.8320 7.4622
1049.3550 61.9867
1052.0700 93.5812
1053.1150 96.0939
1053.8490 48.7574
1054.6600 46.7678
1056.6340 20.7552
1058.9340 32.2781
1060.0370 33.8156
1061.1980 70.7289
1062.2340 65.9708
1063.5940 22.3063
1064.8890 201.3050
1065.6780 29.2962
1066.6100 8.2584
1067.5940 9.9752
1068.8080 5.7787
1069.6490 23.7494
1070.6360 18.2995
1071.4930 19.1173
1072.7250 22.4079
1075.7430 17.1071
1076.5630 9.7621
1077.3150 7.7398
1078.7140 41.6999
1079.7730 68.3568
1080.9410 39.5051
1081.6170 51.2826
1082.5650 27.7493
1083.7760 39.4310
1085.7740 30.1285
1086.7260 69.6304
1087.7880 14.5444
1089.1360 40.5746
1090.0040 4.5076
1090.7670 24.8902
1092.6030 19.0441
1093.7390 79.4080
1094.7370 19.6172
1095.4670 4.4206
1096.9000 57.8090
1097.7090 29.8850
1098.5650 72.5462
1099.8070 38.5399
1100.5170 10.2977
1101.5140 34.8566
1102.5300 99.7879
1103.4880 7.5063
1104.7060 31.6442
1105.6250 20.7391
1106.5340 4.5205
1107.7720 30.1219
1108.9560 12.6406
1109.9460 49.7502
1111.4400 145.4860
1112.6820 97.1523
1113.6410 37.0449
1114.7230 6.9747
1115.6230 12.6252
1116.4150 26.2938
1117.9200 30.9529
1118.6370 2.4446
1119.5290 8.6935
1121.0470 56.8227
1122.1270 24.5239
1125.5360 38.9239
1130.6840 124.7040
1131.8510 29.6662
1132.5920 9.7280
1134.1290 72.1322
1137.5560 29.0586
1138.8930 88.2276
1140.3570 105.9990
1142.6460 95.5166
1143.5330 60.6279
1145.7650 43.1300
1146.9920 13.0830
1148.0420 37.6759
1148.7960 71.1977
1149.9280 80.7143
1150.7470 24.6084
1151.5230 24.6444
1152.7920 79.2439
1154.3920 27.1825
1156.0110 68.3970
1156.8310 165.8830
1157.7480 52.4847
1158.8860 113.2980
1159.7510 16.3436
1160.7130 26.8696
1161.5350 60.3593
1162.2800 49.5555
1163.3970 48.9635
1164.5690 26.5906
1165.7440 48.7035
1166.6280 33.8625
1167.6260 33.4847
1168.8280 6.5640
1170.0460 814.8590
1170.8950 271.9450
1171.8800 68.5743
1172.6890 79.4092
1173.7670 15.4578
1174.4550 27.9934
1175.8920 79.4834
1176.6940 30.2774
1177.5480 14.1911
1179.8350 46.8969
1180.7990 52.7467
1181.6220 59.7871
1182.6790 117.3720
1184.4540 145.0160
1185.7160 201.3490
1186.8910 33.1390
1187.5780 23.3711
1188.3650 31.9284
1190.0410 52.3133
1191.0690 63.2554
1192.0730 35.5138
1192.7710 40.2561
1193.6370 43.6612
1194.7310 206.5530
1196.1420 63.5454
1197.9260 208.7680
1198.7570 104.2280
1199.6400 58.3971
1200.4550 113.3580
1201.8160 195.5680
1203.7030 163.7760
1204.6710 57.1470
1205.6840 41.2427
1217.6310 8.3471
1219.2130 11.7019
1220.0030 16.2229
1220.8420 154.3240
1221.8730 103.0840
1222.5870 9.3405
1223.7870 15.1764
1224.8340 24.5668
1225.8340 48.8770
1229.9120 9.8973
1233.5110 4.3065
1235.3050 5.5629
1236.8580 74.9375
1240.2660 28.9408
1241.0530 5.1573
1243.8910 346.2310
1244.8670 308.3160
1245.7690 84.0338
1247.5030 73.7959
1251.7580 34.4827
1253.1610 19.6199
1254.2010 25.7852
1257.5960 10.3797
1259.6280 35.6524
1260.3740 32.9901
1261.9530 90.5410
1263.3070 15.1215
1264.0210 16.2083
1264.7760 40.5453
1265.6150 28.0470
1266.8020 42.5831
1268.5760 18.4358
1269.7170 18.5145
1271.2700 16.3816
1272.0020 3.1483
1272.8840 3.1739
1273.6220 28.6330
1276.7630 34.5427
1277.9800 38.2675
1279.2300 46.2318
1279.8520 27.9523
1280.8690 46.4184
1281.7700 18.6994
1282.6140 23.3587
1284.2920 58.2365
1285.7820 12.0423
1286.8680 16.0558
1288.0380 4.3795
1288.7900 28.0325
1289.8210 69.1121
1290.8930 61.7309
1291.9090 19.2213
1292.9170 83.5863
1294.0920 76.7006
1295.4520 46.8742
1297.8220 56.2016
1298.8820 16.6614
1299.7600 48.5334
1300.7690 8.6227
1302.1810 121.3520
1302.9400 22.8474
1306.6430 11.8333
1307.9400 318.9370
1309.0330 261.4540
1310.0810 453.3120
1310.7650 107.7950
1311.7310 2.9190
1313.0490 51.4362
1313.8840 6.3116
1316.7860 38.7032
1318.6470 4252.5000
1319.3920 1847.0400
1320.6100 77.6643
1321.5640 42.0520
1322.7200 24.7504
1323.6590 14.4744
1325.9290 13.8145
1328.4840 12.6209
1330.1570 28.1597
1331.4610 5.2479
1332.3010 20.7091
1333.5770 40.8105
1334.3690 62.5148
1335.1890 12.0384
1335.8200 9.3611
1336.9690 32.4245
1337.8120 35.4481
1338.9150 41.6238
1339.7860 26.9765
1340.7940 14.2125
1341.9620 25.0493
1343.0150 100.2190
1343.9670 2.7458
1345.2890 29.8017
1350.1300 93.9398
1351.1720 47.8710
1352.1200 75.7593
1352.8550 22.4762
1353.6880 10.2336
1355.1680 40.9201
1356.8850 130.2940
1358.0590 49.5607
1359.3240 18.8705
1360.1350 18.1643
1361.4610 4.4510
1363.1110 58.9374
1363.7280 8.4668
1365.0180 86.7713
1366.0620 119.6760
1366.8330 84.7893
1367.8220 54.1204
1370.4200 12.9814
1372.9460 3.7968
1375.3110 194.6040
1375.9440 164.3270
1377.0180 35.0040
1377.8910 10.6590
1379.6890 45.8347
1380.3750 60.0384
1381.8700 23.0252
1382.8850 10.9010
1384.4410 39.4582
1385.4700 21.0461
1387.3150 22.1669
1388.5330 7.4230
1389.2470 11.0456
1389.8830 23.5874
1391.9880 8.9789
1393.0170 93.0591
1394.0240 110.7640
1395.2030 20.7061
1396.3380 27.1666
1398.0340 9.5957
1399.0400 14.0028
1401.0350 32.2681
1402.0560 21.4286
1404.8750 24.3655
1405.7810 17.8275
1406.9570 53.1270
1408.9540 10.7916
1410.7350 4.6684
1411.7860 7.0289
1412.9680 54.7654
1414.0450 11.1830
1414.9090 57.4224
1415.7480 55.7915
1416.5500 54.1085
1417.7820 3.1701
1419.6500 29.9116
1422.9360 28.1301
1423.5570 46.8816
1424.9370 14.2749
1425.8870 37.1817
1427.2030 19.4393
1428.1380 57.7779
1428.7900 9.4966
1429.9560 48.9149
1431.7550 8.3217
1432.8880 115.3380
1434.0010 18.5141
1434.7090 29.5371
1435.7710 54.3222
1438.3680 21.7033
1441.1470 27.3897
1441.8670 13.3691
1443.1330 40.4136
1445.3770 16.7911
1448.0470 12.2926
1449.4500 55.5130
1450.7320 94.4384
1452.2150 43.7504
1453.1260 12.3507
1453.8190 33.3371
1455.9630 34.2195
1456.8820 23.6429
1458.9760 56.1726
1459.6240 14.8196
1461.9610 13.4853
1463.2050 21.6243
1464.2500 36.6968
1464.9210 12.2910
1466.4640 123.2420
1467.2440 132.4650
1468.0880 24.2724
1469.3770 40.2761
1470.9980 18.9380
1472.9220 29.1573
1473.7150 5.9981
1475.2440 82.1655
1476.2630 232.5250
1477.0830 109.8920
1477.7400 19.2921
1480.0330 93.8288
1481.1450 28.6022
1482.3950 39.4140
1483.1420 12.0957
1484.0200 24.3736
1484.8330 67.3671
1486.1000 48.0179
1487.8900 8.2164
1489.6210 26.4060
1491.2300 22.8846
1493.1560 68.5980
1493.9880 36.7682
1496.5180 20.2449
1498.6720 17.2076
1500.0620 37.4111
1501.1020 58.8666
1502.0210 73.4441
1502.7720 36.3109
1503.6470 45.8371
1505.1850 6.1495
1506.2420 43.3175
1507.3440 172.6130
1508.4040 91.6406
1509.3730 26.6348
1509.9930 29.0019
1511.4750 187.8400
1512.2650 87.5959
1513.8410 3.2316
1514.5880 51.0368
1515.8460 75.1825
1516.4690 30.8501
1518.0500 112.7200
1519.1000 55.1615
1520.1440 41.9901
1521.0030 11.1596
1522.8980 36.3457
1523.8490 44.3301
1524.9770 414.2930
1526.0460 365.5790
1526.9840 118.7190
1528.1990 37.1161
1529.1390 56.0573
1530.3570 55.5291
1531.9210 41.9858
1533.1570 9.0642
1533.8870 11.7443
1536.4620 86.6855
1537.4260 39.6851
1538.4110 81.5260
1539.4660 60.5498
1540.1210 14.8984
1541.3440 60.1287
1542.0830 19.6909
1545.1020 51.0792
1546.4630 78.4202
1547.3430 371.5500
1548.0940 38.0740
1550.1450 55.3811
1550.8240 20.9215
1551.9580 22.7228
1552.6210 14.7789
1554.9540 11.8018
1556.5890 52.0985
1557.5940 9.3555
1558.5660 20.3612
1560.0050 11.2340
1560.9990 22.3747
1562.1010 13.0593
1562.8650 14.8187
1565.0690 171.8950
1565.9030 132.0780
1566.7210 16.1991
1567.7240 5.4358
1569.9590 27.0645
1570.8580 29.7087
1573.2430 11.8737
1574.5470 42.2312
1575.1860 23.9086
1575.9980 29.5686
1577.1930 72.0256
1578.1440 17.8151
1579.5780 14.5762
1580.5990 22.9472
1583.0560 26.1622
1583.9490 4.8980
1585.5380 10.7228
1586.6340 18.3384
1591.1230 22.7692
1592.2370 9.7716
1592.9110 51.4114
1593.6510 3.3256
1594.5060 71.1074
1595.1940 35.7086
1596.2890 16.4700
1598.0470 8.9617
1600.5460 31.8590
1601.8670 66.4213
1603.2600 77.8646
1604.2100 30.5298
1604.8910 15.0219
1607.3350 20.5540
1610.1340 27.2283
1611.5420 36.6676
1612.1560 320.4280
1613.0730 311.2110
1614.0870 139.1360
1615.0570 37.9341
1615.6730 15.4766
1616.6220 9.9718
1617.9060 12.1445
1618.8740 35.6713
1620.6540 31.4555
1627.8740 12.6722
1629.0040 41.3576
1629.7350 129.7310
1631.0520 157.3910
1632.1720 141.5290
1633.0320 35.0174
1634.0750 28.8582
1635.3400 69.2049
1636.8030 15.7173
1637.7020 20.7432
1638.9500 29.5018
1641.9680 8.1749
1642.9040 57.1505
1644.0490 38.8232
1647.9720 11.2585
1648.9430 31.1865
1654.0270 11.8799
1659.4570 17.4458
1662.5460 39.2788
1664.0240 11.1435
1666.2000 25.0205
1668.8960 7.4599
1670.8770 103.5860
1671.6470 189.0490
1672.3410 1.8029
1673.0940 21.5257
1675.3170 7.2347
1675.9520 15.8374
1677.2380 9.0068
1678.9440 14.6216
1680.3510 261.2660
1681.1530 49.0813
1681.9410 16.7440
1688.8360 6.3308
1690.1760 7.5803
1690.9880 16.7987
1692.1540 67.4719
1693.2060 64.8857
1694.2900 43.7130
1699.6190 14.6556
1701.3070 58.6362
1702.9350 25.0099
1705.0360 8.1245
1707.0980 22.2942
1708.1620 19.2049
1708.9560 38.4003
1712.3770 14.9433
1715.1280 22.2802
1719.2070 28.9209
1720.0950 29.7073
1721.5600 38.3213
1723.2910 61.2794
1724.1120 5.4302
1725.1410 14.6630
1726.0360 11.9018
1727.0860 68.1643
1728.0440 427.7880
1728.8190 101.9230
1729.8130 26.3083
1730.8270 5.3383
1732.9980 18.5365
1734.2330 20.4312
1736.8670 206.3880
1737.9750 34.7261
1738.6430 16.5823
1740.1620 57.6581
1741.1340 42.8528
1742.3590 31.3407
1743.3240 24.9849
1744.2810 14.4895
1749.1030 3.9360
1749.7550 14.2910
1750.5090 11.7633
1752.0790 14.3126
1753.1080 8.4226
1756.0620 19.9109
1756.9750 15.5185
1758.0620 26.3936
1758.7920 12.0710
1760.8980 33.8530
1762.3180 24.1092
1775.2140 18.3684
1775.9450 4.2769
1778.2380 55.9349
1779.3560 110.1520
1780.2810 18.8390
1781.7210 16.6817
1783.4580 15.5895
1789.2000 7.2179
1792.9630 5.6202
1794.0750 46.2894
1795.7170 21.4542
1797.0100 29.1439
1798.2010 9.7474
1803.0410 29.2488
1803.9100 11.1301
1810.9330 38.7764
1819.9330 14.4704
1821.3230 55.3862
1822.2520 17.2576
1823.1670 5.8450
1825.2110 11.7781
1830.2950 16.7087
1831.9610 9.2258
1833.0390 8.6400
1836.2530 27.3522
1837.2030 19.5756
1839.2910 26.2223
1841.2910 9.8185
1845.1340 7.4728
1846.3780 6.4800
1847.3070 17.3974
1850.4540 7.6677
1851.2330 16.2606
1852.1930 17.1065
1853.4530 15.6440
1854.7740 20.8024
1856.2870 7.4422
1860.9910 19.7642
1862.2050 18.5009
1863.2090 18.0795
1866.6240 11.7029
1868.2710 46.2676
1869.1140 70.1387
1870.4000 30.9795
1871.2250 17.6365
1872.1270 12.2827
1876.1410 7.1174
1886.0520 8.4840
1886.9590 27.8238
1887.7570 6.6331
1889.1270 36.2890
1890.2370 15.9660
1892.0850 28.2836
1896.2530 11.0048
1899.8990 27.0550
1906.4170 14.5301
1907.3690 103.1330
1908.3260 53.5009
1909.2570 28.0718
1910.0940 30.6008
1927.3410 24.5642
1928.1380 26.4665
1933.9520 18.8401
1938.0700 3.1418
1939.2600 17.0506
1941.2940 13.2905
1943.3740 23.6040
1944.1450 20.2161
1948.2120 28.9453
1949.2410 5.5501
1951.2200 24.3764
1956.2890 28.3029
1958.3060 6.7137
1960.1950 36.1783
1961.2320 20.1343
1969.0670 17.6467
1972.4020 5.5845
1974.2110 32.9868
1975.0950 6.9076
1979.2110 5.6473
1984.9510 7.8002
1991.1310 20.8008
1992.5060 11.3409
1993.5470 27.6754
1999.5340 13.3697
END IONS
BEGIN IONS
TITLE=File220 Spectrum6338 scans: 8553
PEPMASS=754.7207 6407.0078
CHARGE=3+

197.0940 13.6293
215.1590 6.0627
220.3500 13.4165
221.5780 11.6117
223.1240 8.7840
224.1380 4.8594
226.2500 15.5187
227.1040 2.7420
229.1700 27.0774
230.0760 3.7266
232.0610 14.5904
232.8390 8.5137
234.0500 9.0837
235.1680 13.7836
236.1040 24.4931
237.1450 18.6252
241.1770 9.2307
243.2580 20.8947
244.0890 25.6146
245.1200 10.0992
246.1070 19.7599
247.0050 12.4125
248.2650 11.1383
250.3210 2.8249
252.0960 14.1217
252.9500 7.7340
254.1710 12.9241
256.0120 7.3380
257.0350 6.2177
258.1340 2.8291
262.4250 29.3013
263.1990 52.2526
264.2220 27.2494
265.1280 24.8356
266.2500 2.7697
269.1560 9.3416
270.0420 11.7961
271.1590 25.5541
272.0970 65.7572
273.1710 11.2769
276.0420 8.4467
278.1710 4.8095
279.4150 3.8421
280.2950 3.3644
281.2550 13.6732
282.0420 9.1266
284.1850 19.3805
285.1260 14.5492
286.1550 7.0346
287.1520 28.9427
288.0810 6.6525
290.0810 19.3162
294.1950 4.4416
295.2750 9.8284
296.0980 6.1331
297.1670 12.1095
298.0590 10.2613
299.0170 23.9216
300.1580 22.8214
301.1730 8.2467
302.2930 24.2734
303.1970 38.6073
306.0970 27.0243
307.1340 10.9304
310.1820 27.5145
311.5440 16.5511
312.2120 54.7394
313.2270 22.5580
314.1350 4.7843
315.1840 2.0697
316.1140 8.3384
318.3170 6.6618
319.2100 7.3968
320.9870 16.3982
323.0330 9.0099
325.2840 18.7009
326.8910 40.9716
328.2370 26.1548
