BEGIN IONS
TITLE=File7571 Spectrum1214 scans: 3286
PEPMASS=653.36066 230386.65625
CHARGE=2+
RTINSECONDS=1305
SCANS=3286
185.248 32.2752
189.036 43.3745
190.120 111.917
194.137 10.0031
195.165 23.2474
197.206 90.0816
198.050 51.1885
199.221 37.0344
200.092 48.5854
200.731 16.3092
204.082 47.2375
205.134 19.8978
206.154 535.574
207.029 43.3128
208.270 11.7534
209.254 9.96213
211.024 15.5553
213.230 262.488
215.072 46.5157
218.257 12.1959
219.248 38.5835
220.175 19.5158
223.069 7094.7
224.081 577.825
225.192 42.8234
226.139 407.115
227.136 156.455
228.140 37.204
229.040 33.6758
233.186 131.058
234.125 885.539
235.086 144.52
236.502 22.097
242.175 158.182
243.191 119.34
244.136 38.3262
245.106 65.1047
247.275 69.6997
249.338 76.3768
251.102 18382.3
252.109 1518.14
253.162 17.5685
254.065 66.2986
258.132 9.56332
259.348 74.2355
260.135 1194.88
261.185 131.456
262.470 67.733
265.057 29.4415
268.104 17.0047
270.255 54.3383
271.197 31.2622
272.146 39.9678
275.264 22.164
276.536 46.0185
282.221 82.1924
284.191 20.2098
285.431 76.2951
287.256 601.153
288.400 152.06
289.171 39.9319
290.327 50.3535
292.233 43.9514
293.108 26.6841
294.099 41.4218
295.343 65.5056
297.250 7.57411
299.265 27.8424
304.251 808.594
305.206 148.63
312.340 134.974
314.175 597.018
315.252 199.744
317.171 10.6601
318.139 19.9199
321.279 11.551
322.157 23.5677
323.125 756.729
324.092 132.286
326.314 11.9458
328.061 198.342
330.121 32.0703
332.206 10471.8
333.196 1557.76
334.160 94.3644
335.209 18.4162
336.570 37.9236
337.215 90.6974
338.172 78.0092
340.147 1415.51
341.212 379.78
342.210 49.0211
344.120 29.8588
345.584 52.7594
346.187 104.853
346.831 32.8885
348.217 46.1097
348.923 22.2678
350.199 3871.98
351.267 463.143
352.127 56.8648
353.340 36.0177
354.377 128.474
355.369 234.332
356.495 110.27
357.267 259.946
358.203 12.048
359.278 12.1033
362.099 16.264
364.177 47.8543
365.283 63.1458
366.441 58.6423
367.349 10.1358
371.036 12.1717
372.008 37.8035
373.331 451.199
374.319 120.817
376.278 49.6638
377.075 45.4837
378.255 45.1375
380.122 106.932
381.523 15.0133
382.295 243.979
384.338 57.8389
385.774 38.1516
387.259 30.4675
389.133 21.4139
392.534 126.665
393.390 122.46
394.278 51.6998
395.043 34.7275
396.314 46.3658
399.230 16.0392
401.736 141.31
402.433 15.5093
403.500 10.7376
404.374 15.756
405.570 23.2569
406.481 55.8158
407.429 42.7372
408.456 95.623
410.354 971.552
411.708 85.7946
416.379 23.3215
417.380 14.0285
424.362 38.0495
425.285 165.004
429.282 31.5082
430.194 43.6525
432.225 15.2082
434.215 80.2363
435.476 189.445
436.316 113.522
437.287 97.1905
440.580 126.821
441.330 129.555
442.463 51.771
443.067 40.8055
444.844 335.833
447.239 865.034
448.299 91.7609
449.569 87.4653
450.210 15.6106
451.247 99.248
452.261 121.861
453.311 833.89
454.300 323.481
457.518 268.183
458.453 758.985
459.372 217.248
460.316 30.2904
461.370 51.2913
463.524 37.5605
465.241 7421.25
466.257 1094.47
467.381 2852.22
469.129 89.1063
470.310 317.758
471.393 46.9305
473.233 56.2876
474.456 71.1497
477.248 65.5668
478.393 109.952
479.336 75.3234
480.581 38.0753
481.345 125.202
482.343 65.0991
483.336 22.7903
484.322 49.9334
487.336 1608.22
488.578 223.487
489.452 9.00958
490.323 49.5731
491.217 117.641
492.278 119.207
493.391 102.129
494.530 118.556
495.316 857.486
496.327 221.847
497.289 18.4489
500.360 181.74
501.219 93.0186
502.096 61.6196
502.840 12.6886
503.442 13.8099
504.234 17.4954
505.112 54.6913
506.327 120.76
508.357 81.3988
509.158 75.0006
510.054 101.028
511.416 39.7046
513.479 27.1169
514.986 768.215
515.734 176.539
519.343 68.8504
520.223 22.2006
521.264 317.564
523.870 5157.81
524.823 224.233
528.484 90.0512
530.412 57.6965
531.630 287.224
532.425 90.6562
533.258 16.495
534.353 23.1436
535.308 59.0495
536.780 122.492
538.293 158.527
539.228 117.774
540.351 145.05
542.427 59.3848
543.302 59.3758
546.336 224.896
548.200 374.771
549.357 484.376
550.258 169.093
551.864 144.191
552.885 101.255
554.408 63.7947
556.601 50.0689
557.592 109.096
558.348 108.823
559.316 49.5833
560.156 83.6474
561.803 99.3845
562.543 106.348
564.345 550.236
565.465 230.056
566.328 1306.21
567.434 461.176
568.257 61.4683
569.488 54.4676
571.573 239.564
574.524 176.702
575.325 24.1973
576.306 1246.77
577.285 233.293
579.414 164.603
580.471 320.659
581.614 114.292
582.394 269.89
583.488 107.714
584.630 385.849
585.289 255.046
586.160 8.89949
587.240 177.145
588.228 229.663
589.053 73.8641
591.250 66.9166
593.198 236.097
594.310 10091.7
595.288 1721.87
595.914 204.748
596.662 39.9202
597.491 105.53
598.477 184.386
599.620 59.5335
601.325 172.752
602.009 96.8552
603.544 31.3941
604.499 92.229
608.810 46.521
612.761 21.9364
613.917 31.1398
615.434 178.094
616.454 356.741
617.396 23.5292
618.445 162.81
620.917 315.731
622.093 172.225
624.203 113.485
625.536 83.0039
626.793 160.6
628.026 34.7135
628.818 44.9753
644.370 12.4255
647.319 18.1229
653.729 22.2454
654.598 26.7713
656.251 18.6942
659.489 8.3507
660.412 92.1747
661.550 47.2459
662.580 49.1499
663.376 85.8089
664.111 58.9492
665.398 56.1922
666.370 99.3812
667.491 43.3493
670.382 59.3061
671.911 23.3467
673.448 109.189
676.528 25.4307
677.456 236.922
678.535 275.887
679.403 57.5785
680.326 172.915
681.130 59.6667
683.451 256.186
684.589 37.1234
686.242 18.8837
689.261 78.6948
691.322 323.519
692.386 205.755
693.447 52.1417
694.511 211.142
695.466 827.913
696.325 217.738
697.338 508.695
698.422 101.149
700.420 183.087
702.324 21.8393
703.649 34.4516
704.481 66.1107
706.667 23.7443
708.506 144.246
709.316 52.723
712.464 13237.8
713.456 3899.9
714.407 127.567
717.341 18.4778
719.251 129.223
720.989 41.0808
721.657 16.7221
722.729 34.7736
726.234 59.8821
728.585 39.7458
731.919 57.4793
733.393 9.87023
734.601 174.933
736.521 36.2175
740.388 37.5709
741.527 15.9628
743.334 106.21
745.464 35.3957
750.393 20.3217
751.428 122.896
752.619 78.3337
755.579 34.8386
758.493 33.7982
759.340 59.802
761.878 88.5151
762.543 102.832
763.801 9.87632
765.455 64.7958
767.332 25.7318
768.492 49.3726
769.567 32.325
770.485 16.7312
773.173 99.791
773.947 72.5882
774.649 12.5832
775.606 119.71
776.400 59.6822
778.570 123.847
779.563 185.018
780.297 39.5187
781.735 26.1821
782.485 19.6714
784.404 72.6371
785.681 125.337
786.670 61.9858
787.513 13.9117
790.828 150.18
791.544 56.1788
792.613 111.212
793.487 264.335
794.227 88.0753
796.393 577.669
797.532 194.908
801.467 395.57
802.586 256.034
804.531 23.6084
805.638 38.4585
806.546 116.709
807.445 82.6814
808.674 64.8575
810.457 395.516
811.539 111.498
815.508 36.4554
817.734 57.4867
818.590 47.0271
819.470 1878.8
820.421 564.759
823.481 2574.67
824.504 1131.64
825.519 174.299
827.457 52.0154
828.542 67.4049
830.795 17.522
831.857 47.4642
834.531 10.6275
836.265 75.9712
837.380 49.8846
839.404 19.907
841.505 8587.75
842.486 3361.17
843.192 144.562
844.054 71.0503
844.969 89.5173
847.200 89.5911
848.175 131.001
849.158 14.9459
856.838 77.6974
857.692 43.2619
864.508 98.2914
865.297 13.5477
866.691 19.8737
870.855 25.4699
874.646 30.1099
875.567 37.6669
880.551 10.3226
881.579 12.8737
882.581 58.7445
885.454 24.3446
887.335 48.808
888.526 53.2855
889.566 19.275
891.634 145.729
892.566 230.834
893.483 127.69
896.712 32.3023
897.557 21.199
898.609 70.315
899.656 48.0317
900.466 14.3984
901.613 26.1411
903.563 24.7485
904.505 27.3618
905.510 34.1748
906.418 56.5844
909.535 808.985
910.531 309.439
911.790 15.867
915.426 448.275
916.431 176.552
917.421 145.38
918.942 43.333
919.791 17.7736
922.045 33.3453
926.986 46.4877
933.503 3134.89
934.534 908.957
935.632 39.1485
938.028 26.8864
938.672 256.562
939.610 565.07
940.597 188.348
944.768 16.8088
945.674 7.64145
946.606 17.2382
947.721 33.0025
948.664 77.7405
956.570 15316.5
957.560 5020.2
958.399 127.944
959.107 12.7502
961.525 20.1914
965.512 18.4483
968.577 75.7957
976.814 13.9113
983.643 84.348
984.629 16.4408
989.701 21.3834
993.611 18.0709
996.688 41.4527
1000.610 39.8109
1001.529 66.8448
1002.715 50.7345
1004.655 10.29
1005.668 52.6443
1006.756 28.2076
1010.849 57.8191
1011.597 42.6904
1012.550 44.8128
1017.677 38.9627
1018.636 122.285
1019.592 62.3764
1021.336 19.7823
1022.646 36.7829
1023.504 33.4293
1028.616 727.133
1029.675 340.413
1030.515 30.9804
1032.800 17.2761
1037.660 692.277
1038.722 871.333
1039.790 320.765
1040.669 31.6956
1041.582 21.8807
1044.650 72.4832
1046.642 4177.56
1047.719 1522.54
1048.849 78.3435
1055.656 30421.4
1056.638 13543.2
1057.659 243.355
1058.617 57.5858
1059.595 17.8696
1060.798 27.2919
1065.753 60.3941
1066.866 27.732
1073.514 31.2488
1078.769 27.195
1083.826 16.7913
1088.119 21.5606
1092.530 10.5171
1096.612 21.9499
1114.907 15.5641
1125.031 18.5055
1125.702 15.2205
1131.928 97.5429
1132.743 79.176
1133.645 28.12
1134.321 49.3263
1141.715 269.338
1142.678 420.989
1143.794 179.568
1150.740 72.981
1151.823 88.2157
1152.809 118.069
1157.673 23.9556
1159.673 2567.6
1160.808 1705.6
1161.528 71.302
1168.730 4779.72
1169.794 2797.93
1170.693 49.77
1172.014 30.4371
1173.278 15.0996
1176.593 23.2482
1178.013 109.571
1178.707 345.585
1179.802 85.6409
1268.313 25.0818
END IONS

BEGIN IONS
TITLE=File7571 Spectrum612 scans: 2654
PEPMASS=625.31378 1842144.00000
CHARGE=2+
RTINSECONDS=1161
SCANS=2654
177.007 161.385
183.219 309.337
185.182 230.471
186.229 499.184
187.078 380.539
189.134 146.657
190.233 185.447
191.173 131.124
195.213 492.75
196.168 231.766
197.099 760.002
199.193 466.222
200.219 86.5731
201.061 1597.99
202.235 356.138
203.156 148.336
204.143 142.382
208.198 255.29
209.134 407.385
210.123 228.891
212.122 322.045
213.144 205.572
214.568 616.328
215.195 205.573
221.168 411.33
223.576 92.6232
224.263 96.7091
225.143 994.43
226.163 3252.97
227.189 1162.13
228.128 462.629
229.217 644.439
231.157 14144.4
232.210 1363
236.095 107.013
237.166 289.824
240.305 106.548
241.238 1397.45
242.194 1277.78
243.288 1172.59
244.170 2459.07
245.218 532.769
247.274 115.05
248.195 239.352
249.322 1050.54
252.236 392.434
253.240 98.7583
254.176 3527.76
255.237 126.789
257.225 1653.94
258.144 1854.64
259.178 4965.55
260.333 951.214
261.032 106.662
263.090 102.617
267.217 1265.08
268.139 338.438
270.224 491.744
272.200 7769.95
273.276 814.562
276.131 38452.6
277.280 5041.17
278.142 316.411
283.538 389.647
284.192 521.294
285.206 7198.69
286.181 488.011
287.114 1276.99
288.184 131.546
289.200 219.224
291.180 1168.16
292.300 156.926
294.210 14867.5
295.338 650.104
296.156 253.48
298.133 1288.55
300.179 720.727
301.400 101.538
303.282 827.129
304.287 589.293
305.506 270.835
310.193 644.581
312.092 1198.58
313.358 288.4
314.344 327.064
315.318 264.631
316.286 622.148
322.317 463.337
324.301 63.5949
327.271 1341.03
328.354 1018.78
329.479 160.235
331.337 588.204
337.210 188.943
338.991 1626.9
340.069 940.24
341.239 2221.07
342.360 318.741
343.333 200.478
344.278 604.382
345.310 490.875
346.243 223.901
347.350 272.956
349.360 1077.35
350.346 226.33
351.391 138.686
356.226 9259.44
357.231 6260.81
358.440 87.8634
362.016 428.191
365.945 89.0167
367.212 3404.77
368.241 1327.14
369.341 271.453
372.481 662.412
373.244 7778.08
374.240 2601.02
375.331 1292.49
376.596 504.177
378.356 683.602
379.377 156.347
384.242 1139.24
385.201 15589.7
386.379 2520.12
387.275 907.64
388.258 1186.3
389.355 754.486
391.221 33752.6
392.245 6279.21
395.243 144.356
396.323 1456.71
397.304 788.513
399.352 320.901
400.640 89.6735
405.191 477.889
407.354 406.452
408.283 617.828
413.158 4755.63
414.363 4625.04
415.319 4160.29
415.927 606.811
418.339 190.597
419.226 914.772
422.208 297.558
423.453 150.854
424.239 247.403
425.396 487.431
426.245 150.182
426.925 585.515
428.372 163.725
429.301 223.549
430.616 1369.8
431.308 15820.2
432.511 3213.33
435.197 754.237
437.384 90.8302
438.378 791.707
440.470 287.252
441.315 1175.48
442.349 2152.57
443.428 151.376
444.437 224.415
445.344 222.536
446.427 184.033
448.594 445.537
449.384 191.624
453.251 3722.88
454.263 630.463
455.348 100.319
456.252 860.607
457.503 196.302
459.335 1496.26
461.024 1209.75
462.422 314.209
463.284 95.0325
464.759 3519.91
465.469 1136.71
468.353 873.47
469.557 1388.24
470.341 1091.87
472.296 180.581
475.823 936.778
476.442 5300.49
477.413 2064.81
479.002 6005.24
479.692 110.744
480.472 184.954
481.517 262.231
483.414 165.608
486.424 3096.69
487.498 5142.46
488.546 1664.59
491.357 147.938
492.345 353.054
493.574 441.003
494.245 148.543
495.865 538.164
497.273 628.977
502.235 688.682
504.319 19261.1
505.392 5056.34
506.391 518.176
507.015 85.5801
508.404 485.894
509.563 1745.82
512.842 479.27
516.030 668.879
517.438 654.018
519.839 118.035
520.823 1266.01
521.427 166.102
524.451 1693.32
525.456 1495.87
526.394 1097.4
527.045 119.726
529.358 1683.08
530.221 197.34
534.005 1873.74
534.624 175.571
535.595 219.898
538.429 14198.4
539.317 182.026
540.333 82.1088
542.475 11104.8
543.393 11200.3
544.442 1057.99
545.494 173.204
547.871 1164.61
552.100 47947.4
552.881 6289.95
553.733 548.006
554.707 135.286
555.766 270.695
557.137 3527.62
560.375 29197.7
561.461 14757.7
562.434 835.202
564.496 1148.8
566.402 1890.28
567.130 571.893
570.460 434.837
571.331 730.427
572.422 1590.41
573.312 15249.8
574.021 4703.67
574.760 268.1
575.598 342.374
577.753 695.332
578.471 858.145
579.330 215.147
581.297 601.475
582.458 452.321
585.443 947.687
586.386 406.413
588.406 117.781
590.871 1701.44
592.574 202.702
594.092 1673.75
595.047 847.459
597.272 245.168
599.435 18161.3
600.286 6038.5
601.288 992.462
624.432 82.5475
626.461 313.65
627.402 256.617
638.341 149.629
641.566 109.556
642.490 1047.2
644.578 253.745
645.624 370.784
646.432 366.057
652.425 144.117
653.419 896.422
654.414 638.374
655.481 589.862
656.424 242.275
662.605 1954.37
663.412 483.834
664.444 348.813
667.284 71.7402
671.233 2239.63
672.381 3806.6
673.504 1281.61
675.506 178.393
681.432 2375.78
682.247 1997.12
683.404 617.606
685.337 264.399
688.706 758.961
689.436 12696.1
690.410 14867.8
691.486 4329.09
692.290 335.235
695.652 165.99
696.364 219.799
699.505 473.198
700.694 452.725
704.593 190.955
706.301 106.944
707.068 107.767
707.857 679.585
708.593 192.103
711.312 970.221
713.326 5251.5
714.444 1655.9
716.589 205.013
728.402 5940.32
729.491 3147.44
730.469 417.659
731.416 1252.3
732.430 113.212
743.814 278.042
746.432 92001.5
747.432 23859.5
748.516 482.947
752.859 333.572
759.394 235.426
767.145 200.546
768.648 234.735
770.354 196.715
771.516 208.177
773.142 116.158
774.526 89.6965
782.594 203.549
783.564 560.187
784.314 651.877
785.337 124.509
792.234 961.491
793.276 966.31
799.562 129.235
800.628 319.296
801.531 2768.53
802.569 595.647
803.619 509
808.344 275.317
809.574 1511.32
810.606 1567.58
812.517 466.751
819.491 8986.55
820.481 3299.55
825.453 412.773
826.463 133.931
827.636 606.774
828.512 5392.13
829.505 4289.93
830.475 460.178
837.395 1162.77
841.523 4694.88
842.439 2484.87
843.847 342.595
846.447 2102.33
847.513 619.556
848.335 530.987
852.417 492.401
856.764 226.584
857.501 256.534
859.525 57165.9
860.602 22687
861.327 570.784
862.102 79.8926
875.538 367.363
885.644 148.386
895.646 273.561
910.585 106.766
911.686 569.668
915.442 195.03
920.476 367.02
921.526 695.783
922.634 604.349
928.566 2038.17
929.662 617.797
938.525 4029.92
939.508 2970.18
940.537 476.1
955.522 465.889
956.558 30146.3
957.612 16099.4
958.611 1857.12
966.611 617.921
971.432 101.85
974.549 145843
975.616 64363.1
976.472 844.898
984.686 327.025
985.766 127.639
986.452 276.293
990.444 190.025
999.430 136.817
1032.526 121.897
1052.646 234.494
1067.665 474.687
1075.616 400.792
1076.688 262.22
1084.333 89.8288
1085.682 1843.02
1086.806 718.528
1095.085 234.59
1103.536 17999.5
1104.552 8170.19
1105.413 635.289
1113.709 1486.69
1120.639 114.51
1121.750 6086.45
1122.735 2253.41
1128.466 66.655
1131.665 831.083
1132.679 229.128
END IONS

BEGIN IONS
TITLE=File7571 Spectrum1832 scans: 3935
PEPMASS=582.31830 3605384.00000
CHARGE=2+
RTINSECONDS=1450
SCANS=3935
155.448 686.675
181.091 409.157
182.017 213.722
185.113 95658.3
186.238 5625.53
191.041 419.485
197.147 1091.09
198.053 874.48
199.103 969.671
200.168 1822.66
203.020 278.582
209.189 342.18
213.106 87735.1
214.131 7364.51
216.126 2992.4
217.014 222.783
218.171 11709.1
219.105 515.647
224.041 255.839
225.212 862.664
226.066 12034.5
226.980 4770.55
230.220 207.639
231.183 1339.75
237.323 1143.17
242.068 495.191
244.077 24016.2
245.136 977.695
252.120 531.462
254.275 667.764
261.164 563.313
263.215 410.07
269.249 574.844
271.989 222.438
281.162 553.107
282.292 474.128
284.354 751.205
293.123 1182.65
294.223 541.87
295.182 469.667
297.258 1643.53
298.137 721.942
299.270 1240.98
309.179 1603.42
310.196 1487.68
311.135 333.231
312.237 1350.34
315.193 254.852
321.216 491.129
322.190 419.521
324.232 450
325.466 995.137
326.374 2755.65
327.245 29287.5
328.281 977.145
329.349 910.621
330.179 388.22
333.222 300.693
334.328 183.005
336.200 1317.05
336.816 248.205
338.195 1893.99
339.222 8552.53
340.234 3967.25
343.161 4689.67
343.849 215.13
347.405 211.024
348.263 413.515
353.273 1628.57
354.177 966.184
355.491 889.196
356.579 3932.27
357.220 16528.8
358.205 2857.45
360.422 672.025
365.241 38594.7
366.229 2578.03
371.197 7081.94
372.366 164.294
373.297 423.215
375.201 650.794
377.277 215.519
378.187 1121.92
381.752 220.045
392.119 1413.09
393.235 2044.64
394.164 461.517
395.298 250.372
405.189 1123.1
408.257 236.842
409.312 2519.35
410.382 3051
411.348 6840.72
412.385 639.324
421.304 1542.49
422.352 781.413
424.328 347.141
427.346 1492.56
428.243 6677.67
429.322 601.533
437.394 5040.69
438.337 7216.66
439.219 14710
440.258 1048.75
441.233 1337.65
442.412 949.623
445.347 1147.5
449.355 2362.19
450.262 621.495
452.316 2519.83
453.311 3912.98
454.455 1199.44
455.560 2661.8
456.250 41491.5
457.426 5408.72
458.441 14715.3
459.402 6264.24
466.454 395.155
467.505 29873
468.336 3144.24
470.207 18364.7
471.159 1916.02
473.345 245.586
476.325 60889.3
477.196 294.303
479.318 422.892
480.944 183.494
483.181 1022.38
484.402 1854.53
485.411 162.582
494.288 61597.8
495.244 4837.13
498.756 415.512
501.312 291.976
506.565 2241.11
507.410 1912.03
508.348 431.641
510.300 477.075
512.255 425.887
515.340 486.056
516.716 2647.33
517.383 935.412
519.817 208.662
521.696 361.086
522.452 272.536
523.740 2284.7
524.354 8301.75
525.743 17594.4
526.504 1043.09
528.883 334.311
530.910 14876.8
531.703 862.135
534.221 8838.34
535.434 1340.2
536.427 861.064
538.101 2330.86
540.426 827.462
541.388 19550.2
542.444 4261.77
543.260 200.972
544.446 422.691
549.233 110.491
550.423 2422.82
551.405 7070.04
552.335 24564.7
553.413 4746.01
555.716 3444.08
556.328 2043.48
557.373 326.128
588.357 556.641
590.421 434.632
593.027 351.649
595.320 196200
596.348 29141.6
597.918 908.413
604.225 136.365
606.726 541.283
607.461 373.719
608.418 656.883
624.356 296.925
624.984 413.631
626.357 678.604
634.595 952.068
635.392 9164.5
636.366 337.034
641.472 257.842
642.402 1723.08
643.637 480.379
650.310 309.598
651.353 419.698
652.410 7372.58
653.454 7072.86
654.505 1622.93
662.348 129.219
666.048 239.696
668.234 1313.84
669.799 1219.87
670.524 10546.8
671.435 2639.63
673.198 225.006
682.334 657.795
685.471 285.226
686.484 640.718
689.417 357.082
690.473 7618.27
691.497 2503.42
697.482 397.68
700.473 566.15
704.299 211.967
708.433 154739
709.528 31958
711.178 389.589
716.231 407.61
717.737 506.403
718.494 752.365
720.001 144.773
722.032 815.738
728.490 415.477
734.996 975.138
745.865 292.754
746.482 830.028
747.522 338.686
753.558 953.77
760.720 273.077
761.977 439.833
763.427 1227.25
764.602 2376.26
765.530 1192.29
770.729 282.225
771.494 2721.74
772.784 263.186
777.794 157.321
780.325 637.196
781.423 7439.52
782.533 4380.17
783.573 984.016
788.356 3738.31
789.637 969.166
799.481 7180.53
800.457 1761.95
804.568 349.205
805.392 224.311
806.582 735.518
812.277 1278.54
819.488 5986.79
820.443 173.448
821.187 612.213
829.607 1385.57
833.557 271.081
834.516 240.253
837.510 75269.3
838.496 14990.3
839.164 585.013
847.497 2912.29
848.595 667.864
853.524 128.493
862.641 368.013
869.467 1041.23
872.606 149.003
874.542 223.486
877.487 352.003
883.205 960.115
884.681 381.892
887.548 982.809
891.344 173.828
895.942 360.335
